Frequency (Hz)	Level (dB)
43.066406	-7.558473
86.132812	-9.209304
129.199219	-11.216170
172.265625	-12.546567
215.332031	-13.551192
258.398438	-14.361776
301.464844	-15.042383
344.531250	-15.629444
387.597656	-16.145855
430.664062	-16.606890
473.730469	-17.023380
516.796875	-17.403202
559.863281	-17.752335
602.929688	-18.075373
645.996094	-18.375967
689.062500	-18.657040
732.128906	-18.920977
775.195312	-19.169764
818.261719	-19.405031
861.328125	-19.628189
904.394531	-19.840422
947.460938	-20.042746
990.527344	-20.236055
1033.593750	-20.421116
1076.660156	-20.598598
1119.726562	-20.769108
1162.792969	-20.933167
1205.859375	-21.091253
1248.925781	-21.243773
1291.992188	-21.391121
1335.058594	-21.533628
1378.125000	-21.671606
1421.191406	-21.805328
1464.257812	-21.935055
1507.324219	-22.061018
1550.390625	-22.183428
1593.457031	-22.302479
1636.523438	-22.418350
1679.589844	-22.531216
1722.656250	-22.641216
1765.722656	-22.748495
1808.789062	-22.853193
1851.855469	-22.955421
1894.921875	-23.055304
1937.988281	-23.152935
1981.054688	-23.248419
2024.121094	-23.341845
2067.187500	-23.433308
2110.253906	-23.522877
2153.320312	-23.610643
2196.386719	-23.696667
2239.453125	-23.781017
2282.519531	-23.863760
2325.585938	-23.944962
2368.652344	-24.024672
2411.718750	-24.102942
2454.785156	-24.179823
2497.851562	-24.255371
2540.917969	-24.329624
2583.984375	-24.402634
2627.050781	-24.474430
2670.117188	-24.545063
2713.183594	-24.614567
2756.250000	-24.682968
2799.316406	-24.750309
2842.382812	-24.816633
2885.449219	-24.881948
2928.515625	-24.946293
2971.582031	-25.009705
3014.648438	-25.072205
3057.714844	-25.133820
3100.781250	-25.194571
3143.847656	-25.254478
3186.914062	-25.313572
3229.980469	-25.371878
3273.046875	-25.429409
3316.113281	-25.486189
3359.179688	-25.542233
3402.246094	-25.597567
3445.312500	-25.652195
3488.378906	-25.706150
3531.445312	-25.759441
3574.511719	-25.812092
3617.578125	-25.864113
3660.644531	-25.915516
3703.710938	-25.966314
3746.777344	-26.016527
3789.843750	-26.066168
3832.910156	-26.115244
3875.976562	-26.163773
3919.042969	-26.211765
3962.109375	-26.259230
4005.175781	-26.306183
4048.242188	-26.352634
4091.308594	-26.398602
4134.375000	-26.444082
4177.441406	-26.489088
4220.507812	-26.533634
4263.574219	-26.577732
4306.640625	-26.621380
4349.707031	-26.664597
4392.773438	-26.707384
4435.839844	-26.749758
4478.906250	-26.791718
4521.972656	-26.833286
4565.039062	-26.874458
4608.105469	-26.915239
4651.171875	-26.955635
4694.238281	-26.995663
4737.304688	-27.035332
4780.371094	-27.074631
4823.437500	-27.113585
4866.503906	-27.152193
4909.570312	-27.190458
4952.636719	-27.228388
4995.703125	-27.265991
5038.769531	-27.303280
5081.835938	-27.340242
5124.902344	-27.376890
5167.968750	-27.413235
5211.035156	-27.449280
5254.101562	-27.485023
5297.167969	-27.520479
5340.234375	-27.555647
5383.300781	-27.590527
5426.367188	-27.625134
5469.433594	-27.659456
5512.500000	-27.693502
5555.566406	-27.727283
5598.632812	-27.760817
5641.699219	-27.794104
5684.765625	-27.827179
5727.832031	-27.860058
5770.898438	-27.892731
5813.964844	-27.925125
5857.031250	-27.957146
5900.097656	-27.988693
5943.164062	-28.019773
5986.230469	-28.050600
6029.296875	-28.081598
6072.363281	-28.113195
6115.429688	-28.145411
6158.496094	-28.177349
6201.562500	-28.207527
6244.628906	-28.235058
6287.695312	-28.261189
6330.761719	-28.289419
6373.828125	-28.322664
6416.894531	-28.358980
6459.960938	-28.390991
6503.027344	-28.412903
6546.093750	-28.429930
6589.160156	-28.456663
6632.226562	-28.499569
6675.292969	-28.542454
6718.359375	-28.561914
6761.425781	-28.564085
6804.492188	-28.586746
6847.558594	-28.644783
6890.625000	-28.693466
6933.691406	-28.690178
6976.757812	-28.679565
7019.824219	-28.733250
7062.890625	-28.812775
7105.957031	-28.813879
7149.023438	-28.773579
7192.089844	-28.827806
7235.156250	-28.933584
7278.222656	-28.917938
7321.289062	-28.855885
7364.355469	-28.947462
7407.421875	-29.059299
7450.488281	-28.978710
7493.554688	-28.944485
7536.621094	-29.115711
7579.687500	-29.138754
7622.753906	-28.997858
7665.820312	-29.119720
7708.886719	-29.271315
7751.953125	-29.098364
7795.019531	-29.124161
7838.085938	-29.367117
7881.152344	-29.209303
7924.218750	-29.148521
7967.285156	-29.448399
8010.351562	-29.303465
8053.417969	-29.191299
8096.484375	-29.537359
8139.550781	-29.364542
8182.617188	-29.253273
8225.683594	-29.641890
8268.750000	-29.381084
8311.816406	-29.351521
8354.882812	-29.743851
8397.949219	-29.354671
8441.015625	-29.517891
8484.082031	-29.785952
8527.148438	-29.328953
8570.214844	-29.763170
8613.281250	-29.695755
8656.347656	-29.411024
8699.414062	-29.990047
8742.480469	-29.501047
8785.546875	-29.709543
8828.613281	-29.964159
8871.679688	-29.434681
8914.746094	-30.108564
8957.812500	-29.640877
9000.878906	-29.769711
9043.945312	-30.108831
9087.011719	-29.502224
9130.078125	-30.281631
9173.144531	-29.646772
9216.210938	-30.002529
9259.277344	-30.084919
9302.343750	-29.658648
9345.410156	-30.436758
9388.476562	-29.581667
9431.542969	-30.416769
9474.609375	-29.820274
9517.675781	-30.114235
9560.742188	-30.229549
9603.808594	-29.803762
9646.875000	-30.585251
9689.941406	-29.662552
9733.007812	-30.717052
9776.074219	-29.727844
9819.140625	-30.611582
9862.207031	-29.954679
9905.273438	-30.377354
9948.339844	-30.264481
9991.406250	-30.132885
10034.472656	-30.576895
10077.539062	-29.946951
10120.605469	-30.832304
10163.671875	-29.840303
10206.738281	-31.004099
10249.804688	-29.805557
10292.871094	-31.096691
10335.937500	-29.823538
10379.003906	-31.132814
10422.070312	-29.872837
10465.136719	-31.139761
10508.203125	-29.934374
10551.269531	-31.140707
10594.335938	-29.993397
10637.402344	-31.152058
10680.468750	-30.039751
10723.535156	-31.183764
10766.601562	-30.067654
10809.667969	-31.240557
10852.734375	-30.075506
10895.800781	-31.322453
10938.867188	-30.066023
10981.933594	-31.424061
11025.000000	-30.046659
11068.066406	-31.532764
11111.132812	-30.030273
11154.199219	-31.626354
11197.265625	-30.035400
11240.332031	-31.672573
11283.398438	-30.085806
11326.464844	-31.634151
11369.531250	-30.208410
11412.597656	-31.482309
11455.664062	-30.428669
11498.730469	-31.215624
11541.796875	-30.760983
11584.863281	-30.872435
11627.929688	-31.190542
11670.996094	-30.526808
11714.062500	-31.644442
11757.128906	-30.271063
11800.195312	-31.969395
11843.261719	-30.196632
11886.328125	-31.979149
11929.394531	-30.376825
11972.460938	-31.611317
12015.527344	-30.840084
12058.593750	-31.028641
12101.660156	-31.508890
12144.726562	-30.508755
12187.792969	-32.101738
12230.859375	-30.292097
12273.925781	-32.181362
12316.992188	-30.524212
12360.058594	-31.621393
12403.125000	-31.209503
12446.191406	-30.852102
12489.257812	-32.059902
12532.324219	-30.395525
12575.390625	-32.381618
12618.457031	-30.553593
12661.523438	-31.774008
12704.589844	-31.351189
12747.656250	-30.862125
12790.722656	-32.314915
12833.789062	-30.438725
12876.855469	-32.405426
12919.921875	-30.865276
12962.988281	-31.456966
13006.054688	-31.961609
13049.121094	-30.604666
13092.187500	-32.644070
13135.253906	-30.671728
13178.320312	-31.901245
13221.386719	-31.725061
13264.453125	-30.801157
13307.519531	-32.721291
13350.585938	-30.646866
13393.652344	-32.124256
13436.718750	-31.701797
13479.785156	-30.892876
13522.851562	-32.811100
13565.917969	-30.712402
13608.984375	-32.130463
13652.050781	-31.902018
13695.117188	-30.850492
13738.183594	-32.922546
13781.250000	-30.887569
13824.316406	-31.907593
13867.382812	-32.321800
13910.449219	-30.743690
13953.515625	-32.904675
13996.582031	-31.282249
14039.648438	-31.467705
14082.714844	-32.858398
14125.781250	-30.761312
14168.847656	-32.521637
14211.914062	-32.012928
14254.980469	-30.976658
14298.046875	-33.130295
14341.113281	-31.196064
14384.179688	-31.731890
14427.246094	-32.921772
14470.312500	-30.835411
14513.378906	-32.617508
14556.445312	-32.227833
14599.511719	-30.981878
14642.578125	-33.196171
14685.644531	-31.528435
14728.710938	-31.501461
14771.777344	-33.263145
14814.843750	-31.077633
14857.910156	-32.183464
14900.976562	-32.930351
14944.042969	-30.930624
14987.109375	-32.816452
15030.175781	-32.434406
15073.242188	-31.040497
15116.308594	-33.257851
15159.375000	-31.956833
15202.441406	-31.321640
15245.507812	-33.469559
15288.574219	-31.584881
15331.640625	-31.685038
15374.707031	-33.495838
15417.773438	-31.338135
15460.839844	-32.057755
15503.906250	-33.412464
15546.972656	-31.200703
15590.039062	-32.391327
15633.105469	-33.288399
15676.171875	-31.143417
15719.238281	-32.661526
15762.304688	-33.171974
15805.371094	-31.136299
15848.437500	-32.861786
15891.503906	-33.091812
15934.570312	-31.154879
15977.636719	-32.994858
16020.703125	-33.062614
16063.769531	-31.182741
16106.835938	-33.065449
16149.902344	-33.090454
16192.968750	-31.212257
16236.035156	-33.075882
16279.101562	-33.176048
16322.167969	-31.244698
16365.234375	-33.024506
16408.300781	-33.315170
16451.367188	-31.289864
16494.433594	-32.907066
16537.500000	-33.497051
16580.566406	-31.365622
16623.632812	-32.720490
16666.699219	-33.700706
16709.765625	-31.496498
16752.832031	-32.468872
16795.898438	-33.890930
16838.964844	-31.710543
16882.031250	-32.170502
16925.097656	-34.016380
16968.164062	-32.033009
17011.230469	-31.863230
17054.296875	-34.013916
17097.363281	-32.475147
17140.429688	-31.605560
17183.496094	-33.824951
17226.562500	-33.017063
17269.628906	-31.471418
17312.695312	-33.425377
17355.761719	-33.586998
17398.828125	-31.538208
17441.894531	-32.859226
17484.960938	-34.049160
17528.027344	-31.866724
17571.093750	-32.248688
17614.160156	-34.224548
17657.226562	-32.468662
17700.292969	-31.766169
17743.359375	-33.972038
17786.425781	-33.258423
17829.492188	-31.585627
17872.558594	-33.315033
17915.625000	-34.006016
17958.691406	-31.833725
18001.757812	-32.493565
18044.824219	-34.357090
18087.890625	-32.530415
18130.957031	-31.853392
18174.023438	-34.032444
18217.089844	-33.503036
18260.156250	-31.694126
18303.222656	-33.151791
18346.289062	-34.311996
18389.355469	-32.168457
18432.421875	-32.219563
18475.488281	-34.371368
18518.554688	-33.176155
18561.621094	-31.760447
18604.687500	-33.538326
18647.753906	-34.236492
18690.820312	-32.080971
18733.886719	-32.438835
18776.953125	-34.514404
18820.019531	-33.125912
18863.085938	-31.838003
18906.152344	-33.642612
18949.218750	-34.317345
18992.285156	-32.172604
19035.351562	-32.439087
19078.417969	-34.553791
19121.484375	-33.350693
19164.550781	-31.886120
19207.617188	-33.470562
19250.683594	-34.560711
19293.750000	-32.451946
19336.816406	-32.257866
19379.882812	-34.406902
19422.949219	-33.844486
19466.015625	-32.004658
19509.082031	-33.032810
19552.148438	-34.790661
19595.214844	-33.009941
19638.281250	-32.048969
19681.347656	-33.902435
19724.414062	-34.522388
19767.480469	-32.423950
19810.546875	-32.605225
19853.613281	-36.082695
19896.679688	-42.296253
19939.746094	-50.109276
19982.812500	-58.514545
20025.878906	-66.701965
20068.945312	-74.105637
20112.011719	-80.470909
20155.078125	-85.812210
20198.144531	-90.290657
20241.210938	-94.081078
20284.277344	-97.353508
20327.343750	-100.206421
20370.410156	-102.696175
20413.476562	-104.943733
20456.542969	-107.073212
20499.609375	-108.756294
20542.675781	-110.489899
20585.742188	-112.008102
20628.808594	-113.379875
20671.875000	-114.520950
20714.941406	-115.838730
20758.007812	-116.486923
20801.074219	-117.536469
20844.140625	-118.450516
20887.207031	-119.020775
20930.273438	-119.625519
20973.339844	-120.342560
21016.406250	-120.724396
21059.472656	-120.923859
21102.539062	-121.352966
21145.605469	-121.587502
21188.671875	-122.016953
21231.738281	-122.245377
21274.804688	-122.060173
21317.871094	-122.332237
21360.937500	-122.558968
21404.003906	-122.674782
21447.070312	-122.708405
21490.136719	-122.680084
21533.203125	-122.764328
21576.269531	-122.590141
21619.335938	-122.892570
21662.402344	-123.334953
21705.468750	-123.203926
21748.535156	-122.993301
21791.601562	-122.722313
21834.667969	-122.961197
21877.734375	-123.326897
21920.800781	-123.305923
21963.867188	-123.217682
22006.933594	-123.144920
